##NAMES=Quartz
##RRUFFID=R050125
##IDEAL CHEMISTRY=SiO_2_
##LOCALITY=Linopolis, Minas Gerais, Brazil
##OWNER=RRUFF
##SOURCE=Carlos and Paulo Vasconcelos
##DESCRIPTION=Pale pink group of single crystals, variety rose quartz
##STATUS=The identification of this mineral has been confirmed by X-ray diffraction and chemical analysis
##URL=rruff.info/R050125
##MEASURED CHEMISTRY=Si_1.00_O_2_
##PIN_ID=L00165
##ORIENTATION=Laser parallel to -c* (0 0 -1). Fiducial mark perpendicular to laser is parallel to -b [0 -1 0]
47.490, 0.000
48.899, 0.578
50.308, 57.398
51.717, 76.189
53.126, 89.223
54.534, 119.737
55.942, 160.630
57.350, 174.752
58.758, 259.178
60.165, 267.573
61.572, 309.499
62.979, 364.668
64.386, 340.280
65.792, 324.978
67.198, 277.655
68.604, 274.410
70.010, 272.585
71.415, 214.507
72.820, 201.774
74.225, 163.773
75.630, 142.814
77.034, 92.763
78.438, 64.786
79.842, 57.739
81.246, 24.777
82.649, 13.903
84.053, 8.114
85.455, 2.399
86.858, 25.253
88.260, 22.855
89.663, 20.358
91.065, 37.085
92.466, 4.629
93.868, 26.220
95.269, 49.854
96.670, 34.525
98.070, 58.227
99.471, 44.952
100.871, 48.690
102.271, 72.436
103.670, 100.186
105.070, 120.938
106.469, 123.693
107.868, 158.465
109.267, 195.994
110.665, 212.142
112.063, 307.126
113.461, 373.247
114.859, 463.437
116.256, 620.677
117.653, 808.986
119.050, 1137.344
120.447, 1760.691
121.843, 2676.010
123.240, 3986.292
124.636, 5218.537
126.031, 6700.749
127.427, 6878.926
128.822, 5681.081
130.217, 4094.271
131.612, 2655.509
133.006, 1895.804
134.400, 1333.144
135.794, 1118.517
137.188, 985.912
138.581, 901.319
139.975, 855.731
141.368, 885.137
142.760, 859.526
144.153, 790.895
145.545, 770.239
146.937, 770.550
148.329, 743.819
149.720, 656.035
151.112, 609.180
152.503, 631.227
153.893, 555.222
155.284, 546.183
156.674, 511.118
158.064, 541.028
159.454, 566.920
160.843, 588.799
162.233, 644.669
163.622, 661.532
165.011, 690.406
166.399, 765.762
167.787, 811.976
169.175, 836.509
170.563, 957.007
171.951, 1085.362
173.338, 1098.346
174.725, 1230.210
176.112, 1298.698
177.499, 1408.213
178.885, 1594.811
180.271, 1759.174
181.657, 1991.576
183.043, 2135.958
184.428, 2426.400
185.813, 2733.715
187.198, 3007.351
188.583, 3567.303
189.967, 3819.631
191.351, 4540.820
192.735, 4982.639
194.119, 5652.327
195.502, 6303.766
196.885, 6948.130
198.268, 7906.491
199.651, 8349.848
201.033, 9099.202
202.415, 9449.548
203.797, 9879.892
205.179, 9770.229
206.561, 9720.563
207.942, 9521.029
209.323, 8957.892
210.703, 8459.226
212.084, 7713.441
213.464, 7100.497
214.844, 6446.651
216.224, 5648.819
217.603, 5105.799
218.983, 4364.574
220.362, 3978.142
221.741, 3581.579
223.119, 3144.884
224.497, 2977.048
225.875, 2635.060
227.253, 2414.940
228.631, 2192.692
230.008, 1993.305
231.385, 1839.774
232.762, 1692.084
234.139, 1610.181
235.515, 1365.053
236.891, 1346.850
238.267, 1200.597
239.643, 1110.307
241.018, 1075.839
242.393, 983.277
243.768, 985.503
245.143, 906.511
246.517, 878.477
247.891, 809.037
249.265, 783.400
250.639, 749.632
252.012, 695.669
253.386, 708.019
254.759, 636.557
256.131, 626.287
257.504, 586.149
258.876, 672.445
260.248, 647.195
261.620, 670.212
262.991, 676.089
264.363, 567.190
265.734, 457.185
267.104, 378.218
268.475, 312.444
269.845, 257.789
271.215, 213.222
272.585, 225.668
273.955, 156.260
275.324, 160.875
276.693, 131.486
278.062, 126.094
279.431, 121.696
280.799, 102.294
282.167, 80.887
283.535, 41.473
284.903, 69.053
286.270, 72.626
287.638, 37.193
289.005, 43.754
290.371, 57.308
291.738, 23.856
293.104, 28.398
294.470, 6.067
295.836, 21.459
297.201, 26.021
298.567, 9.483
299.932, 0.981
301.296, 23.530
302.661, 21.056
304.025, 16.596
305.389, 5.148
306.753, 8.791
308.117, 15.282
309.480, 6.867
310.843, 2.462
312.206, 9.194
313.569, 11.675
314.931, 9.704
316.293, 11.077
317.655, 20.556
319.017, 19.201
320.378, 4.142
321.740, 15.480
323.101, 18.187
324.461, 26.865
325.822, 8.556
327.182, 0.255
328.542, 0.040
329.902, 2.329
331.261, 9.611
332.621, 1.885
333.980, 34.152
335.339, 44.414
336.697, 33.667
338.056, 67.908
339.414, 68.142
340.772, 101.357
342.129, 93.557
343.487, 154.743
344.844, 240.926
346.201, 311.101
347.557, 481.280
348.914, 716.438
350.270, 1161.591
351.626, 1869.727
352.982, 2599.858
354.337, 3062.987
355.693, 2608.110
357.048, 1807.230
358.402, 1034.348
359.757, 555.463
361.111, 303.577
362.465, 169.689
363.819, 91.799
365.173, 41.907
366.526, 16.013
367.879, 3.116
369.232, 20.785
370.585, 6.693
371.937, 40.607
373.290, 8.464
374.642, 10.523
375.993, 23.434
377.345, 31.593
378.696, 3.606
380.047, 26.604
381.398, 47.588
382.748, 81.560
384.099, 116.521
385.449, 143.471
386.799, 243.411
388.148, 441.342
389.497, 777.264
390.847, 1278.177
392.196, 1852.083
393.544, 2008.981
394.893, 1582.873
396.241, 1029.759
397.589, 679.640
398.936, 509.517
400.284, 401.390
401.631, 302.259
402.978, 265.125
404.325, 190.988
405.672, 164.849
407.018, 160.709
408.364, 131.568
409.710, 126.427
411.055, 99.291
412.401, 141.162
413.746, 157.039
415.091, 163.920
416.435, 197.812
417.780, 154.714
419.124, 205.625
420.468, 212.537
421.812, 260.451
423.155, 228.365
424.498, 301.280
425.842, 274.197
427.184, 305.113
428.527, 308.028
429.869, 365.943
431.211, 397.857
432.553, 438.768
433.895, 501.677
435.236, 530.584
436.577, 617.489
437.918, 666.390
439.259, 794.292
440.599, 896.192
441.940, 1053.089
443.280, 1216.972
444.619, 1399.764
445.959, 1662.392
447.298, 2004.137
448.637, 2465.895
449.976, 2893.510
451.315, 3693.153
452.653, 4624.852
453.991, 5916.410
455.329, 7894.984
456.667, 10842.995
458.004, 15502.540
459.341, 21190.305
460.678, 29939.777
462.015, 37919.176
463.352, 43187.109
464.688, 44155.199
466.024, 38293.574
467.360, 31112.670
468.695, 23691.545
470.031, 17430.021
471.366, 13559.026
472.701, 10138.295
474.035, 8283.778
475.370, 6780.499
476.704, 5672.988
478.038, 4901.544
479.372, 4102.721
480.705, 3751.988
482.038, 3215.440
483.371, 2897.988
484.704, 2729.354
486.037, 2386.183
487.369, 2262.146
488.701, 2020.552
490.033, 1884.958
491.365, 1691.429
492.696, 1569.932
494.027, 1485.442
495.358, 1379.646
496.689, 1313.964
498.019, 1221.859
499.350, 1168.078
500.680, 1175.211
502.009, 1076.111
503.339, 1054.540
504.668, 973.090
505.997, 882.545
507.326, 852.689
508.655, 751.555
509.983, 728.400
511.311, 716.852
512.639, 704.865
513.967, 700.405
515.295, 618.306
516.622, 612.173
517.949, 594.024
519.276, 597.959
520.602, 579.758
521.929, 503.556
523.255, 498.352
524.581, 473.148
525.906, 478.813
527.232, 465.370
528.557, 434.874
529.882, 419.256
531.207, 393.475
532.531, 406.624
533.855, 359.155
535.179, 346.696
536.503, 371.941
537.827, 357.574
539.150, 331.091
540.473, 310.706
541.796, 292.411
543.119, 287.860
544.441, 269.981
545.764, 285.766
547.086, 286.550
548.407, 280.335
549.729, 252.119
551.050, 211.903
552.371, 237.688
553.692, 159.472
555.013, 168.256
556.333, 175.040
557.653, 147.824
558.973, 141.608
560.293, 99.392
561.612, 129.176
562.932, 131.960
564.251, 103.745
565.569, 112.529
566.888, 95.327
568.206, 130.118
569.524, 104.579
570.842, 107.556
572.160, 102.125
573.477, 74.909
574.795, 98.739
576.112, 83.523
577.428, 88.307
578.745, 105.090
580.061, 92.873
581.377, 91.702
582.693, 94.486
584.009, 114.888
585.324, 64.670
586.639, 71.460
587.954, 96.241
589.269, 70.022
590.583, 90.802
591.897, 69.607
593.212, 102.393
594.525, 106.270
595.839, 93.082
597.152, 70.788
598.465, 90.572
599.778, 55.647
601.091, 74.454
602.403, 32.274
603.716, 60.636
605.028, 72.665
606.339, 29.481
607.651, 61.467
608.962, 44.358
610.273, 46.166
611.584, 42.945
612.895, 31.724
614.205, 43.504
615.515, 18.287
616.825, 63.072
618.135, 21.865
619.444, 36.659
620.754, 60.517
622.063, 44.321
623.372, 39.166
624.680, 44.983
625.989, 49.804
627.297, 34.628
628.605, 23.458
629.912, 32.291
631.220, 37.127
632.527, 14.964
633.834, 17.805
635.141, 2.647
636.447, 15.490
637.754, 23.339
639.060, 25.195
640.366, 9.053
641.671, 10.910
642.977, 10.774
644.282, 25.646
645.587, 12.521
646.892, 29.398
648.196, 11.276
649.501, 24.155
650.805, 2.035
652.109, 10.084
653.412, 11.209
654.716, 21.340
656.019, 7.482
657.322, 22.628
658.625, 0.213
659.927, 9.948
661.230, 28.116
662.532, 10.297
663.834, 37.485
665.135, 2.306
666.437, 7.097
667.738, 10.112
669.039, 19.324
670.340, 11.545
671.640, 0.226
672.940, 0.997
674.241, 3.766
675.540, 0.466
676.840, 21.300
678.139, 33.069
679.439, 21.838
680.738, 42.606
682.036, 52.378
683.335, 26.152
684.633, 79.926
685.931, 114.702
687.229, 117.484
688.527, 167.267
689.824, 235.064
691.121, 328.863
692.418, 427.664
693.715, 475.475
695.012, 534.286
696.308, 504.097
697.604, 428.909
698.900, 371.721
700.195, 237.531
701.491, 187.342
702.786, 103.152
704.081, 87.961
705.376, 113.769
706.670, 82.577
707.964, 78.384
709.259, 38.191
710.552, 31.999
711.846, 24.805
713.139, 32.613
714.433, 31.422
715.726, 37.229
717.018, 32.679
718.311, 29.717
719.603, 20.646
720.895, 21.450
722.187, 13.254
723.479, 15.056
724.770, 8.142
726.061, 16.348
727.352, 9.791
728.643, 40.211
729.934, 5.985
731.224, 29.759
732.514, 40.531
733.804, 39.303
735.094, 19.073
736.383, 5.844
737.672, 16.614
738.961, 6.618
740.250, 37.144
741.539, 14.905
742.827, 20.666
744.115, 17.425
745.403, 22.183
746.691, 10.941
747.978, 15.697
749.265, 3.453
750.552, 9.206
751.839, 11.042
753.126, 15.701
754.412, 0.557
755.698, 10.181
756.984, 6.918
758.270, 5.346
759.555, 0.383
760.840, 8.109
762.125, 15.167
763.410, 3.546
764.695, 10.256
765.979, 21.965
767.263, 27.674
768.547, 25.381
769.831, 33.087
771.114, 20.792
772.398, 17.497
773.681, 26.200
774.964, 5.902
776.246, 24.602
777.529, 9.301
778.811, 28.999
780.093, 66.695
781.375, 42.390
782.656, 36.084
783.937, 57.777
785.219, 42.468
786.499, 92.158
787.780, 98.845
789.060, 122.533
790.341, 166.166
791.621, 186.850
792.901, 238.533
794.180, 219.215
795.459, 258.869
796.739, 234.529
798.017, 193.187
799.296, 168.863
800.575, 134.525
801.853, 123.351
803.131, 123.851
804.409, 107.521
805.686, 113.131
806.964, 104.201
808.241, 123.199
809.518, 102.575
810.795, 73.770
812.071, 88.052
813.347, 83.626
814.623, 94.669
815.899, 68.886
817.175, 69.907
818.450, 89.256
819.726, 67.148
821.001, 63.766
822.275, 65.737
823.550, 48.608
824.824, 72.524
826.098, 66.318
827.372, 46.902
828.646, 75.501
829.920, 68.015
831.193, 73.428
832.466, 56.143
833.739, 84.795
835.011, 59.411
836.284, 71.614
837.556, 73.256
838.828, 80.030
840.100, 66.670
841.371, 85.310
842.642, 78.393
843.914, 88.566
845.184, 64.345
846.455, 64.885
847.726, 83.536
848.996, 79.197
850.266, 84.827
851.536, 98.484
852.805, 60.134
854.075, 96.776
855.344, 74.414
856.613, 62.038
857.881, 86.660
859.150, 63.281
860.418, 76.901
861.686, 70.827
862.954, 54.491
864.222, 66.107
865.489, 30.297
866.756, 85.975
868.023, 68.587
869.290, 53.197
870.557, 42.806
871.823, 52.414
873.089, 51.020
874.355, 63.641
875.621, 47.231
876.886, 64.826
878.152, 61.751
879.417, 58.158
880.682, 65.971
881.946, 64.843
883.211, 70.591
884.475, 69.714
885.739, 83.308
887.003, 83.900
888.266, 93.707
889.530, 91.251
890.793, 90.839
892.056, 85.834
893.318, 67.422
894.581, 103.998
895.843, 76.583
897.105, 80.167
898.367, 102.750
899.629, 108.306
900.890, 67.880
902.152, 75.362
903.413, 62.907
904.673, 61.557
905.934, 88.127
907.194, 56.405
908.454, 57.950
909.714, 79.481
910.974, 93.469
912.234, 76.789
913.493, 96.322
914.752, 92.685
916.011, 76.141
917.270, 102.681
918.528, 108.250
919.786, 98.818
921.044, 107.386
922.302, 111.953
923.560, 73.519
924.817, 71.085
926.074, 74.650
927.331, 84.152
928.588, 77.715
929.844, 73.244
931.101, 61.807
932.357, 32.368
933.613, 49.930
934.868, 62.490
936.124, 35.050
937.379, 70.609
938.634, 67.168
939.889, 70.726
941.144, 49.284
942.398, 64.841
943.652, 34.398
944.906, 49.954
946.160, 45.509
947.414, 38.408
948.667, 30.619
949.920, 36.173
951.173, 54.727
952.426, 59.280
953.678, 44.833
954.931, 36.385
956.183, 41.936
957.435, 40.488
958.686, 37.042
959.938, 49.598
961.189, 43.159
962.440, 34.723
963.691, 19.292
964.941, 16.233
966.192, 4.568
967.442, 5.562
968.692, 1.140
969.942, 4.272
971.191, 23.313
972.441, 15.103
973.690, 6.525
974.939, 16.055
976.187, 3.363
977.436, 10.217
978.684, 18.797
979.932, 20.377
981.180, 11.863
982.428, 0.290
983.675, 6.282
984.922, 15.147
986.169, 8.585
987.416, 7.972
988.663, 1.472
989.909, 12.083
991.155, 20.638
992.401, 6.808
993.647, 8.259
994.893, 1.714
996.138, 14.172
997.383, 3.363
998.628, 0.899
999.873, 20.438
1001.117, 0.977
1002.362, 2.515
1003.606, 4.053
1004.850, 4.590
1006.093, 10.127
1007.337, 14.663
1008.580, 13.200
1009.823, 28.736
1011.066, 4.727
1012.308, 0.194
1013.551, 8.339
1014.793, 9.129
1016.035, 0.601
1017.277, 13.925
1018.518, 9.450
1019.760, 36.976
1021.001, 36.501
1022.242, 32.026
1023.483, 3.553
1024.723, 20.083
1025.964, 26.614
1027.204, 19.144
1028.444, 25.685
1029.683, 19.053
1030.923, 20.779
1032.162, 11.330
1033.401, 7.881
1034.640, 13.432
1035.879, 53.984
1037.117, 3.464
1038.355, 30.085
1039.593, 37.638
1040.831, 1.191
1042.069, 25.747
1043.306, 27.302
1044.544, 49.857
1045.781, 57.412
1047.017, 24.971
1048.254, 50.530
1049.490, 65.093
1050.726, 43.656
1051.962, 83.220
1053.198, 42.783
1054.434, 70.350
1055.669, 51.922
1056.904, 96.495
1058.139, 126.071
1059.374, 145.647
1060.608, 207.225
1061.843, 252.804
1063.077, 240.383
1064.311, 281.967
1065.544, 227.551
1066.778, 204.136
1068.011, 211.720
1069.244, 157.305
1070.477, 122.889
1071.710, 142.473
1072.942, 150.057
1074.174, 128.640
1075.406, 127.223
1076.638, 150.807
1077.870, 222.390
1079.101, 222.974
1080.332, 232.558
1081.563, 218.141
1082.794, 172.725
1084.025, 120.308
1085.255, 89.891
1086.485, 103.474
1087.715, 82.057
1088.945, 68.640
1090.175, 89.221
1091.404, 80.803
1092.633, 75.895
1093.862, 45.965
1095.091, 59.546
1096.319, 46.126
1097.548, 34.706
1098.776, 29.286
1100.004, 17.866
1101.231, 73.446
1102.459, 70.026
1103.686, 71.620
1104.913, 55.199
1106.140, 28.777
1107.367, 53.355
1108.593, 28.933
1109.819, 28.510
1111.046, 26.087
1112.271, 24.664
1113.497, 22.240
1114.722, 8.482
1115.948, 31.081
1117.173, 65.626
1118.398, 47.901
1119.622, 112.470
1120.847, 113.075
1122.071, 59.218
1123.295, 72.784
1124.519, 18.110
1125.742, 44.676
1126.966, 65.241
1128.189, 3.194
1129.412, 51.603
1130.635, 31.096
1131.857, 64.651
1133.080, 39.241
1134.302, 50.241
1135.524, 94.852
1136.746, 68.304
1137.967, 81.862
1139.188, 116.495
1140.410, 107.606
1141.631, 114.627
1142.851, 157.053
1144.072, 140.703
1145.292, 167.003
1146.512, 223.081
1147.732, 256.746
1148.952, 313.331
1150.172, 340.861
1151.391, 463.434
1152.610, 591.020
1153.829, 748.570
1155.048, 1054.131
1156.266, 1274.875
1157.484, 1516.422
1158.702, 1634.790
1159.920, 1458.350
1161.138, 1252.895
1162.356, 972.894
1163.573, 687.429
1164.790, 544.982
1166.007, 390.584
1167.224, 300.125
1168.440, 278.710
1169.656, 172.787
1170.872, 151.078
1172.088, 144.809
1173.304, 110.346
1174.519, 104.663
1175.735, 64.198
1176.950, 28.739
1178.165, 100.934
1179.379, 84.524
1180.594, 69.063
1181.808, 96.827
1183.022, 27.355
1184.236, 64.688
1185.449, 85.278
1186.663, 74.803
1187.876, 54.308
1189.089, 54.864
1190.302, 43.385
1191.515, 37.945
1192.727, 33.906
1193.939, 54.016
1195.151, 28.725
1196.363, 28.240
1197.575, 37.753
1198.786, 20.265
1199.997, 57.787
1201.208, 40.475
1202.419, 36.048
1203.630, 42.141
1204.840, 32.705
1206.051, 55.209
1207.261, 36.712
1208.470, 59.276
1209.680, 57.788
1210.889, 88.286
1212.099, 37.863
1213.308, 62.358
1214.516, 53.030
1215.725, 45.550
1216.933, 92.040
1218.142, 83.529
1219.350, 67.016
1220.557, 84.571
1221.765, 73.172
1222.972, 85.682
1224.180, 77.219
1225.387, 104.888
1226.593, 135.420
1227.800, 94.896
1229.006, 114.432
1230.213, 127.957
1231.419, 100.501
1232.624, 125.971
1233.830, 92.441
1235.035, 45.945
1236.241, 78.412
1237.446, 72.879
1238.650, 72.402
1239.855, 78.868
1241.059, 62.345
1242.264, 75.823
1243.468, 69.286
1244.671, 88.970
1245.875, 78.431
1247.078, 75.892
1248.282, 19.352
1249.485, 72.811
1250.687, 30.269
1251.890, 70.728
1253.092, 64.185
1254.295, 24.712
1255.497, 83.167
1256.699, 48.620
1257.900, 46.172
1259.102, 37.624
1260.303, 35.522
1261.504, 47.982
1262.705, 47.425
1263.905, 32.867
1265.106, 49.309
1266.306, 36.752
1267.506, 27.196
1268.706, 66.639
1269.905, 65.081
1271.105, 63.522
1272.304, 50.961
1273.503, 47.612
1274.702, 36.645
1275.900, 35.065
1277.099, 35.525
1278.297, 34.942
1279.495, 12.359
1280.693, 18.800
1281.891, 50.207
1283.088, 7.613
1284.285, 38.010
1285.482, 29.400
1286.679, 21.790
1287.876, 44.179
1289.072, 8.438
1290.268, 5.065
1291.464, 4.304
1292.660, 10.670
1293.856, 35.033
1295.051, 16.394
1296.247, 13.752
1297.442, 39.108
1298.637, 22.460
1299.831, 0.810
1301.026, 31.155
1302.220, 3.497
1303.414, 10.837
1304.608, 44.175
1305.802, 18.511
1306.995, 11.846
1308.188, 23.179
1309.381, 11.509
1310.574, 34.834
1311.767, 15.157
1312.960, 4.523
1314.152, 8.209
1315.344, 1.099
1316.536, 33.402
1317.728, 24.298
1318.919, 34.992
1320.110, 24.278
1321.301, 6.439
1322.492, 11.838
1323.683, 24.112
1324.874, 0.382
1326.064, 35.648
1327.254, 20.911
1328.444, 12.829
1329.634, 29.424
1330.823, 23.675
1332.013, 17.923
1333.202, 43.168
1334.391, 16.412
1335.580, 12.348
1336.768, 35.887
1337.956, 14.882
1339.145, 39.343
1340.333, 43.565
1341.520, 34.785
1342.708, 23.003
1343.895, 14.521
1345.083, 10.688
1346.270, 5.095
1347.456, 12.113
1348.643, 28.314
1349.829, 41.513
1351.016, 10.710
1352.202, 22.906
1353.387, 32.101
1354.573, 8.415
1355.759, 29.488
1356.944, 1.699
1358.129, 18.890
1359.314, 68.070
1360.498, 36.310
1361.683, 34.488
1362.867, 9.664
1364.051, 4.840
1365.235, 19.014
1366.419, 12.216
1367.602, 1.382
1368.785, 12.547
1369.968, 26.711
1371.151, 10.870
1372.334, 13.163
1373.517, 9.185
1374.699, 28.578
1375.881, 52.969
1377.063, 17.359
1378.245, 38.747
1379.426, 36.133
1380.608, 12.516
1381.789, 29.897
1382.970, 23.259
1384.150, 31.635
1385.331, 23.010
1386.511, 1.383
1387.691, 47.753
1388.871, 30.127
1390.051, 58.499
1391.231, 50.870
1392.410, 27.238
1393.589, 26.605
1394.768, 30.971
1395.947, 11.337
1397.126, 54.701
1398.304, 47.971
1399.483, 8.239
1400.661, 71.597
1401.838, 27.937
1403.016, 22.628
1404.194, 27.744
1405.371, 40.029
1406.548, 27.299
1407.725, 53.355
1408.901, 45.510
1410.078, 41.752
1411.254, 36.955
1412.430, 31.453
1413.606, 39.430
1414.782, 30.905
1415.958, 34.923
1417.133, 56.635
1418.308, 11.914
1419.483, 53.061
1420.658, 40.952
1421.832, 13.538
1423.007, 23.740
1424.181, 54.902
1425.355, 27.414
1426.529, 45.689
1427.702, 34.850
1428.876, 25.990
1430.049, 66.067
1431.222, 34.097
1432.395, 20.199
1433.567, 60.166
1434.740, 27.117
1435.912, 69.885
1437.084, 59.911
1438.256, 40.984
1439.428, 58.703
1440.599, 26.601
1441.770, 20.176
1442.942, 68.094
1444.112, 45.871
1445.283, 47.888
1446.454, 57.816
1447.624, 33.683
1448.794, 56.625
1449.964, 29.546
1451.134, 33.989
1452.303, 38.898
1453.473, 58.788
1454.642, 19.653
1455.811, 56.330
1456.980, 40.911
1458.148, 63.709
1459.317, 43.480
1460.485, 42.272
1461.653, 53.048
1462.821, 35.803
1463.989, 24.535
1465.156, 57.287
1466.323, 54.960
1467.490, 17.760
1468.657, 76.484
1469.824, 25.308
1470.991, 33.189
1472.157, 67.082
1473.323, 16.024
1474.489, 40.961
1475.655, 46.900
1476.820, 29.836
1477.986, 75.782
1479.151, 27.736
1480.316, 28.690
1481.481, 40.645
1482.645, 27.611
1483.810, 5.411
1484.974, 35.578
1486.138, 6.593
1487.302, 7.626
1488.465, 46.681
1489.629, 36.764
1490.792, 42.881
1491.955, 11.031
1493.118, 18.210
1494.281, 35.415
1495.443, 11.648
1496.606, 5.915
1497.768, 57.222
1498.930, 10.087
1500.091, 0.829
1501.253, 65.300
1502.414, 37.500
1503.575, 38.694
1504.736, 36.864
1505.897, 3.630
1507.058, 45.718
1508.218, 33.927
1509.379, 17.075
1510.539, 53.032
1511.698, 0.101
1512.858, 0.000
##END=



